# Temperature [K], Thermal Conductivity (xx, xy, xz, yx, yy, yz, zx, zy, zz) [W/mK]
      0.00         0.0000         0.0000         0.0000         0.0000         0.0000         0.0000         0.0000         0.0000         0.0000
     10.00    176582.3885         0.0286         0.0286         0.0286    176582.3885         0.0286         0.0286         0.0286    176582.3885
     20.00     47432.2904         0.0057         0.0057         0.0057     47432.2904         0.0057         0.0057         0.0057     47432.2904
     30.00     25652.8563         0.0020         0.0020         0.0020     25652.8563         0.0020         0.0020         0.0020     25652.8563
     40.00     17485.2541         0.0009         0.0009         0.0009     17485.2541         0.0009         0.0009         0.0009     17485.2541
     50.00     12634.2795         0.0005         0.0005         0.0005     12634.2795         0.0005         0.0005         0.0005     12634.2795
     60.00      9346.4877         0.0003         0.0003         0.0003      9346.4877         0.0003         0.0003         0.0003      9346.4877
     70.00      7018.1858         0.0002         0.0002         0.0002      7018.1858         0.0002         0.0002         0.0002      7018.1858
     80.00      5355.0833         0.0002         0.0002         0.0002      5355.0833         0.0002         0.0002         0.0002      5355.0833
     90.00      4168.8225         0.0001         0.0001         0.0001      4168.8225         0.0001         0.0001         0.0001      4168.8225
    100.00      3319.2723         0.0001         0.0001         0.0001      3319.2723         0.0001         0.0001         0.0001      3319.2723
    110.00      2703.5525         0.0001         0.0001         0.0001      2703.5525         0.0001         0.0001         0.0001      2703.5525
    120.00      2249.6017         0.0001         0.0001         0.0001      2249.6017         0.0001         0.0001         0.0001      2249.6017
    130.00      1908.3683         0.0001         0.0001         0.0001      1908.3683         0.0001         0.0001         0.0001      1908.3683
    140.00      1646.7486         0.0001         0.0001         0.0001      1646.7486         0.0001         0.0001         0.0001      1646.7486
    150.00      1442.3064         0.0000         0.0000         0.0000      1442.3064         0.0000         0.0000         0.0000      1442.3064
    160.00      1279.6622         0.0000         0.0000         0.0000      1279.6622         0.0000         0.0000         0.0000      1279.6622
    170.00      1148.1177         0.0000         0.0000         0.0000      1148.1177         0.0000         0.0000         0.0000      1148.1177
    180.00      1040.1089         0.0000         0.0000         0.0000      1040.1089         0.0000         0.0000         0.0000      1040.1089
    190.00       950.1997         0.0000         0.0000         0.0000       950.1997         0.0000         0.0000         0.0000       950.1997
    200.00       874.4201         0.0000         0.0000         0.0000       874.4201         0.0000         0.0000         0.0000       874.4201
    210.00       809.8254         0.0000         0.0000         0.0000       809.8254         0.0000         0.0000         0.0000       809.8254
    220.00       754.1997         0.0000         0.0000         0.0000       754.1997         0.0000         0.0000         0.0000       754.1997
    230.00       705.8526         0.0000         0.0000         0.0000       705.8526         0.0000         0.0000         0.0000       705.8526
    240.00       663.4775         0.0000         0.0000         0.0000       663.4775         0.0000         0.0000         0.0000       663.4775
    250.00       626.0528         0.0000         0.0000         0.0000       626.0528         0.0000         0.0000         0.0000       626.0528
    260.00       592.7703         0.0000         0.0000         0.0000       592.7703         0.0000         0.0000         0.0000       592.7703
    270.00       562.9842         0.0000         0.0000         0.0000       562.9842         0.0000         0.0000         0.0000       562.9842
    280.00       536.1731         0.0000         0.0000         0.0000       536.1731         0.0000         0.0000         0.0000       536.1731
    290.00       511.9127         0.0000         0.0000         0.0000       511.9127         0.0000         0.0000         0.0000       511.9127
    300.00       489.8540         0.0000         0.0000         0.0000       489.8540         0.0000         0.0000         0.0000       489.8540
    310.00       469.7082         0.0000         0.0000         0.0000       469.7082         0.0000         0.0000         0.0000       469.7082
    320.00       451.2345         0.0000         0.0000         0.0000       451.2345         0.0000         0.0000         0.0000       451.2345
    330.00       434.2303         0.0000         0.0000         0.0000       434.2303         0.0000         0.0000         0.0000       434.2303
    340.00       418.5245         0.0000         0.0000         0.0000       418.5245         0.0000         0.0000         0.0000       418.5245
    350.00       403.9713         0.0000         0.0000         0.0000       403.9713         0.0000         0.0000         0.0000       403.9713
    360.00       390.4460         0.0000         0.0000         0.0000       390.4460         0.0000         0.0000         0.0000       390.4460
    370.00       377.8412         0.0000         0.0000         0.0000       377.8412         0.0000         0.0000         0.0000       377.8412
    380.00       366.0642         0.0000         0.0000         0.0000       366.0642         0.0000         0.0000         0.0000       366.0642
    390.00       355.0341         0.0000         0.0000         0.0000       355.0341         0.0000         0.0000         0.0000       355.0341
    400.00       344.6804         0.0000         0.0000         0.0000       344.6804         0.0000         0.0000         0.0000       344.6804
    410.00       334.9414         0.0000         0.0000         0.0000       334.9414         0.0000         0.0000         0.0000       334.9414
    420.00       325.7624         0.0000         0.0000         0.0000       325.7624         0.0000         0.0000         0.0000       325.7624
    430.00       317.0954         0.0000         0.0000         0.0000       317.0954         0.0000         0.0000         0.0000       317.0954
    440.00       308.8977         0.0000         0.0000         0.0000       308.8977         0.0000         0.0000         0.0000       308.8977
    450.00       301.1311         0.0000         0.0000         0.0000       301.1311         0.0000         0.0000         0.0000       301.1311
    460.00       293.7616         0.0000         0.0000         0.0000       293.7616         0.0000         0.0000         0.0000       293.7616
    470.00       286.7589         0.0000         0.0000         0.0000       286.7589         0.0000         0.0000         0.0000       286.7589
    480.00       280.0954         0.0000         0.0000         0.0000       280.0954         0.0000         0.0000         0.0000       280.0954
    490.00       273.7465         0.0000         0.0000         0.0000       273.7465         0.0000         0.0000         0.0000       273.7465
    500.00       267.6898         0.0000         0.0000         0.0000       267.6898         0.0000         0.0000         0.0000       267.6898
    510.00       261.9052         0.0000         0.0000         0.0000       261.9052         0.0000         0.0000         0.0000       261.9052
    520.00       256.3742         0.0000         0.0000         0.0000       256.3742         0.0000         0.0000         0.0000       256.3742
    530.00       251.0802         0.0000         0.0000         0.0000       251.0802         0.0000         0.0000         0.0000       251.0802
    540.00       246.0078         0.0000         0.0000         0.0000       246.0078         0.0000         0.0000         0.0000       246.0078
    550.00       241.1430         0.0000         0.0000         0.0000       241.1430         0.0000         0.0000         0.0000       241.1430
    560.00       236.4731         0.0000         0.0000         0.0000       236.4731         0.0000         0.0000         0.0000       236.4731
    570.00       231.9864         0.0000         0.0000         0.0000       231.9864         0.0000         0.0000         0.0000       231.9864
    580.00       227.6719         0.0000         0.0000         0.0000       227.6719         0.0000         0.0000         0.0000       227.6719
    590.00       223.5198         0.0000         0.0000         0.0000       223.5198         0.0000         0.0000         0.0000       223.5198
    600.00       219.5208         0.0000         0.0000         0.0000       219.5208         0.0000         0.0000         0.0000       219.5208
    610.00       215.6665         0.0000         0.0000         0.0000       215.6665         0.0000         0.0000         0.0000       215.6665
    620.00       211.9489         0.0000         0.0000         0.0000       211.9489         0.0000         0.0000         0.0000       211.9489
    630.00       208.3607         0.0000         0.0000         0.0000       208.3607         0.0000         0.0000         0.0000       208.3607
    640.00       204.8953         0.0000         0.0000         0.0000       204.8953         0.0000         0.0000         0.0000       204.8953
    650.00       201.5461         0.0000         0.0000         0.0000       201.5461         0.0000         0.0000         0.0000       201.5461
    660.00       198.3075         0.0000         0.0000         0.0000       198.3075         0.0000         0.0000         0.0000       198.3075
    670.00       195.1738         0.0000         0.0000         0.0000       195.1738         0.0000         0.0000         0.0000       195.1738
    680.00       192.1399         0.0000         0.0000         0.0000       192.1399         0.0000         0.0000         0.0000       192.1399
    690.00       189.2012         0.0000         0.0000         0.0000       189.2012         0.0000         0.0000         0.0000       189.2012
    700.00       186.3530         0.0000         0.0000         0.0000       186.3530         0.0000         0.0000         0.0000       186.3530
    710.00       183.5912         0.0000         0.0000         0.0000       183.5912         0.0000         0.0000         0.0000       183.5912
    720.00       180.9119         0.0000         0.0000         0.0000       180.9119         0.0000         0.0000         0.0000       180.9119
    730.00       178.3112         0.0000         0.0000         0.0000       178.3112         0.0000         0.0000         0.0000       178.3112
    740.00       175.7859         0.0000         0.0000         0.0000       175.7859         0.0000         0.0000         0.0000       175.7859
    750.00       173.3325         0.0000         0.0000         0.0000       173.3325         0.0000         0.0000         0.0000       173.3325
    760.00       170.9480         0.0000         0.0000         0.0000       170.9480         0.0000         0.0000         0.0000       170.9480
    770.00       168.6295         0.0000         0.0000         0.0000       168.6295         0.0000         0.0000         0.0000       168.6295
    780.00       166.3742         0.0000         0.0000         0.0000       166.3742         0.0000         0.0000         0.0000       166.3742
    790.00       164.1795         0.0000         0.0000         0.0000       164.1795         0.0000         0.0000         0.0000       164.1795
    800.00       162.0431         0.0000         0.0000         0.0000       162.0431         0.0000         0.0000         0.0000       162.0431
    810.00       159.9625         0.0000         0.0000         0.0000       159.9625         0.0000         0.0000         0.0000       159.9625
    820.00       157.9356         0.0000         0.0000         0.0000       157.9356         0.0000         0.0000         0.0000       157.9356
    830.00       155.9603         0.0000         0.0000         0.0000       155.9603         0.0000         0.0000         0.0000       155.9603
    840.00       154.0346         0.0000         0.0000         0.0000       154.0346         0.0000         0.0000         0.0000       154.0346
    850.00       152.1566         0.0000         0.0000         0.0000       152.1566         0.0000         0.0000         0.0000       152.1566
    860.00       150.3247         0.0000         0.0000         0.0000       150.3247         0.0000         0.0000         0.0000       150.3247
    870.00       148.5369         0.0000         0.0000         0.0000       148.5369         0.0000         0.0000         0.0000       148.5369
    880.00       146.7919         0.0000         0.0000         0.0000       146.7919         0.0000         0.0000         0.0000       146.7919
    890.00       145.0880         0.0000         0.0000         0.0000       145.0880         0.0000         0.0000         0.0000       145.0880
    900.00       143.4238         0.0000         0.0000         0.0000       143.4238         0.0000         0.0000         0.0000       143.4238
    910.00       141.7978         0.0000         0.0000         0.0000       141.7978         0.0000         0.0000         0.0000       141.7978
    920.00       140.2089         0.0000         0.0000         0.0000       140.2089         0.0000         0.0000         0.0000       140.2089
    930.00       138.6556         0.0000         0.0000         0.0000       138.6556         0.0000         0.0000         0.0000       138.6556
    940.00       137.1368         0.0000         0.0000         0.0000       137.1368         0.0000         0.0000         0.0000       137.1368
    950.00       135.6514         0.0000         0.0000         0.0000       135.6514         0.0000         0.0000         0.0000       135.6514
    960.00       134.1983         0.0000         0.0000         0.0000       134.1983         0.0000         0.0000         0.0000       134.1983
    970.00       132.7763         0.0000         0.0000         0.0000       132.7763         0.0000         0.0000         0.0000       132.7763
    980.00       131.3846         0.0000         0.0000         0.0000       131.3846         0.0000         0.0000         0.0000       131.3846
    990.00       130.0220         0.0000         0.0000         0.0000       130.0220         0.0000         0.0000         0.0000       130.0220
   1000.00       128.6878         0.0000         0.0000         0.0000       128.6878         0.0000         0.0000         0.0000       128.6878
